Temp A (K)	Temp B (K)	current (A)	voltage (V)	R (ohm)
9.787000	8.352000	5.000000E-6	2.217930E-4	44.358600
9.713000	8.179000	5.000000E-6	2.209809E-4	44.196180
9.686000	8.207000	5.000000E-6	2.201421E-4	44.028420
9.727000	8.974000	5.000000E-6	2.188312E-4	43.766240
9.842000	9.136000	5.000000E-6	2.171312E-4	43.426230
9.906000	8.925000	5.000000E-6	2.146991E-4	42.939830
9.923000	8.532000	5.000000E-6	2.131299E-4	42.625970
9.903000	8.362000	5.000000E-6	2.115084E-4	42.301690
9.887000	8.364000	5.000000E-6	2.096384E-4	41.927690
9.917000	8.989000	5.000000E-6	2.074368E-4	41.487370
10.013000	9.370000	5.000000E-6	2.060614E-4	41.212270
10.088000	9.196000	5.000000E-6	2.040354E-4	40.807090
10.110000	8.766000	5.000000E-6	2.022189E-4	40.443770
10.096000	8.567000	5.000000E-6	2.007632E-4	40.152640
10.075000	8.575000	5.000000E-6	1.989058E-4	39.781170
10.101000	8.947000	5.000000E-6	1.975430E-4	39.508600
10.164000	9.546000	5.000000E-6	1.960734E-4	39.214680
10.248000	9.220000	5.000000E-6	1.944872E-4	38.897440
10.264000	9.028000	5.000000E-6	1.928392E-4	38.567830
10.269000	8.670000	5.000000E-6	1.916758E-4	38.335160
10.246000	8.674000	5.000000E-6	1.899477E-4	37.989540
10.247000	9.327000	5.000000E-6	1.889192E-4	37.783840
10.332000	9.657000	5.000000E-6	1.876281E-4	37.525610
10.381000	9.490000	5.000000E-6	1.865504E-4	37.310080
10.411000	9.055000	5.000000E-6	1.851201E-4	37.024030
10.396000	8.988000	5.000000E-6	1.838964E-4	36.779280
10.396000	8.800000	5.000000E-6	1.825996E-4	36.519920
10.380000	9.193000	5.000000E-6	1.814811E-4	36.296230
10.441000	9.640000	5.000000E-6	1.802476E-4	36.049520
10.497000	9.749000	5.000000E-6	1.789396E-4	35.787910
10.545000	9.289000	5.000000E-6	1.780208E-4	35.604150
10.537000	9.160000	5.000000E-6	1.770162E-4	35.403240
10.533000	8.974000	5.000000E-6	1.760904E-4	35.218070
10.511000	9.127000	5.000000E-6	1.750492E-4	35.009840
10.550000	9.526000	5.000000E-6	1.738634E-4	34.772680
10.601000	9.942000	5.000000E-6	1.728153E-4	34.563050
10.668000	9.503000	5.000000E-6	1.717756E-4	34.355120
10.685000	9.557000	5.000000E-6	1.713513E-4	34.270250
10.694000	9.267000	5.000000E-6	1.696723E-4	33.934460
10.675000	9.074000	5.000000E-6	1.682631E-4	33.652620
10.656000	9.108000	5.000000E-6	1.678852E-4	33.577040
10.684000	9.920000	5.000000E-6	1.669678E-4	33.393550
10.770000	9.971000	5.000000E-6	1.658213E-4	33.164250
10.814000	9.781000	5.000000E-6	1.650007E-4	33.000150
10.823000	9.328000	5.000000E-6	1.640131E-4	32.802620
10.810000	9.233000	5.000000E-6	1.628751E-4	32.575010
10.787000	9.203000	5.000000E-6	1.620615E-4	32.412310
10.806000	9.882000	5.000000E-6	1.611695E-4	32.233890
10.881000	10.179000	5.000000E-6	1.603124E-4	32.062480
10.938000	9.993000	5.000000E-6	1.589903E-4	31.798060
10.956000	9.619000	5.000000E-6	1.581178E-4	31.623560
10.947000	9.409000	5.000000E-6	1.572593E-4	31.451870
10.926000	9.352000	5.000000E-6	1.564445E-4	31.288900
10.933000	9.812000	5.000000E-6	1.550803E-4	31.016060
10.996000	10.353000	5.000000E-6	1.546252E-4	30.925030
11.063000	10.225000	5.000000E-6	1.538819E-4	30.776390
11.086000	9.845000	5.000000E-6	1.525514E-4	30.510280
11.084000	9.637000	5.000000E-6	1.519107E-4	30.382150
11.065000	9.531000	5.000000E-6	1.509904E-4	30.198090
11.067000	9.751000	5.000000E-6	1.500183E-4	30.003650
11.109000	10.473000	5.000000E-6	1.490052E-4	29.801040
11.184000	10.241000	5.000000E-6	1.479501E-4	29.590010
11.218000	9.913000	5.000000E-6	1.474668E-4	29.493360
11.229000	9.874000	5.000000E-6	1.461110E-4	29.222200
11.220000	9.644000	5.000000E-6	1.452581E-4	29.051630
11.209000	9.726000	5.000000E-6	1.438658E-4	28.773170
11.241000	10.536000	5.000000E-6	1.429596E-4	28.591930
11.314000	10.530000	5.000000E-6	1.420760E-4	28.415200
11.360000	10.405000	5.000000E-6	1.411571E-4	28.231430
11.379000	10.116000	5.000000E-6	1.400599E-4	28.011970
11.377000	9.895000	5.000000E-6	1.390581E-4	27.811620
11.366000	9.872000	5.000000E-6	1.380016E-4	27.600320
11.381000	10.437000	5.000000E-6	1.370631E-4	27.412610
11.439000	10.850000	5.000000E-6	1.361906E-4	27.238110
11.495000	10.711000	5.000000E-6	1.355443E-4	27.108850
11.518000	10.389000	5.000000E-6	1.342573E-4	26.851460
11.518000	10.170000	5.000000E-6	1.337389E-4	26.747780
11.509000	10.096000	5.000000E-6	1.330504E-4	26.610090
11.514000	10.285000	5.000000E-6	1.322426E-4	26.448520
11.543000	10.991000	5.000000E-6	1.311257E-4	26.225130
11.609000	11.004000	5.000000E-6	1.302799E-4	26.055970
11.640000	10.662000	5.000000E-6	1.297362E-4	25.947230
11.655000	10.390000	5.000000E-6	1.290111E-4	25.802230
11.641000	10.336000	5.000000E-6	1.286235E-4	25.724690
11.640000	10.170000	5.000000E-6	1.280895E-4	25.617900
11.638000	10.899000	5.000000E-6	1.275584E-4	25.511690
11.712000	11.136000	5.000000E-6	1.267899E-4	25.357980
11.757000	10.943000	5.000000E-6	1.263080E-4	25.261600
11.788000	10.628000	5.000000E-6	1.249718E-4	24.994370
11.784000	10.551000	5.000000E-6	1.250042E-4	25.000840
11.787000	10.345000	5.000000E-6	1.245982E-4	24.919640
11.770000	10.645000	5.000000E-6	1.233449E-4	24.668980
11.806000	11.248000	5.000000E-6	1.230456E-4	24.609130
11.875000	11.213000	5.000000E-6	1.225005E-4	24.500100
11.902000	10.861000	5.000000E-6	1.221086E-4	24.421710
11.913000	10.644000	5.000000E-6	1.216561E-4	24.331220
11.901000	10.573000	5.000000E-6	1.209762E-4	24.195230
11.896000	10.429000	5.000000E-6	1.207359E-4	24.147190
11.890000	11.174000	5.000000E-6	1.203565E-4	24.071310
11.954000	11.370000	5.000000E-6	1.195514E-4	23.910290
11.997000	11.170000	5.000000E-6	1.191511E-4	23.830220
12.029000	10.846000	5.000000E-6	1.183981E-4	23.679610
12.033000	10.807000	5.000000E-6	1.178178E-4	23.563560
12.058000	10.719000	5.000000E-6	1.168750E-4	23.375010
12.042000	10.592000	5.000000E-6	1.167753E-4	23.355050
12.041000	10.821000	5.000000E-6	1.161964E-4	23.239280
12.067000	11.492000	5.000000E-6	1.158958E-4	23.179150
12.136000	11.347000	5.000000E-6	1.152411E-4	23.048210
12.175000	11.214000	5.000000E-6	1.146763E-4	22.935250
12.191000	10.959000	5.000000E-6	1.140833E-4	22.816669
12.188000	10.756000	5.000000E-6	1.139021E-4	22.780427
12.174000	10.746000	5.000000E-6	1.128582E-4	22.571644
12.188000	11.298000	5.000000E-6	1.122218E-4	22.444354
12.241000	11.666000	5.000000E-6	1.119759E-4	22.395182
12.295000	11.551000	5.000000E-6	1.113662E-4	22.273231
12.317000	11.251000	5.000000E-6	1.112903E-4	22.258060
12.325000	11.045000	5.000000E-6	1.104094E-4	22.081872
12.316000	10.976000	5.000000E-6	1.098039E-4	21.960775
12.321000	10.961000	5.000000E-6	1.093430E-4	21.868602
12.326000	11.679000	5.000000E-6	1.090606E-4	21.812128
12.388000	11.809000	5.000000E-6	1.083005E-4	21.660109
12.423000	11.581000	5.000000E-6	1.081376E-4	21.627526
12.449000	11.300000	5.000000E-6	1.076852E-4	21.537037
12.451000	11.236000	5.000000E-6	1.072412E-4	21.448244
12.450000	11.035000	5.000000E-6	1.069996E-4	21.399912
12.439000	11.293000	5.000000E-6	1.060624E-4	21.212487
12.472000	11.645000	5.000000E-6	1.058925E-4	21.178500
12.514000	11.922000	5.000000E-6	1.052855E-4	21.057098
12.566000	11.625000	5.000000E-6	1.047839E-4	20.956783
12.586000	11.530000	5.000000E-6	1.040294E-4	20.805888
12.602000	11.363000	5.000000E-6	1.037232E-4	20.744630
12.597000	11.186000	5.000000E-6	1.030123E-4	20.602458
12.592000	11.275000	5.000000E-6	1.027875E-4	20.557495
12.615000	11.951000	5.000000E-6	1.021187E-4	20.423749
12.669000	12.013000	5.000000E-6	1.017520E-4	20.350395
12.709000	11.891000	5.000000E-6	1.011662E-4	20.233236
12.726000	11.588000	5.000000E-6	1.010186E-4	20.203727
12.729000	11.448000	5.000000E-6	1.006393E-4	20.127866
12.721000	11.372000	5.000000E-6	1.002979E-4	20.059577
12.727000	11.533000	5.000000E-6	9.957298E-5	19.914596
12.749000	12.156000	5.000000E-6	9.964605E-5	19.929211
12.804000	12.220000	5.000000E-6	9.889579E-5	19.779158
12.830000	11.965000	5.000000E-6	9.889439E-5	19.778878
12.853000	11.727000	5.000000E-6	9.790952E-5	19.581903
12.862000	11.683000	5.000000E-6	9.766371E-5	19.532741
12.872000	11.506000	5.000000E-6	9.725904E-5	19.451808
12.864000	11.736000	5.000000E-6	9.651578E-5	19.303155
12.890000	12.054000	5.000000E-6	9.652561E-5	19.305122
12.925000	12.352000	5.000000E-6	9.610133E-5	19.220266
12.976000	12.080000	5.000000E-6	9.553793E-5	19.107586
12.998000	11.970000	5.000000E-6	9.506168E-5	19.012336
13.010000	11.659000	5.000000E-6	9.454042E-5	18.908084
13.007000	11.626000	5.000000E-6	9.446456E-5	18.892912
13.001000	11.638000	5.000000E-6	9.388142E-5	18.776284
13.021000	12.249000	5.000000E-6	9.338269E-5	18.676539
13.069000	12.440000	5.000000E-6	9.307783E-5	18.615566
13.123000	12.381000	5.000000E-6	9.285164E-5	18.570329
13.148000	11.965000	5.000000E-6	9.208730E-5	18.417460
13.157000	11.947000	5.000000E-6	9.181331E-5	18.362662
13.155000	11.746000	5.000000E-6	9.164333E-5	18.328665
13.142000	11.780000	5.000000E-6	9.141009E-5	18.282017
13.162000	12.391000	5.000000E-6	9.090006E-5	18.180012
13.209000	12.598000	5.000000E-6	9.048846E-5	18.097692
13.258000	12.499000	5.000000E-6	8.993626E-5	17.987252
13.281000	12.231000	5.000000E-6	9.007114E-5	18.014227
13.293000	12.078000	5.000000E-6	8.942204E-5	17.884409
13.292000	12.009000	5.000000E-6	8.887695E-5	17.775390
13.295000	11.924000	5.000000E-6	8.885585E-5	17.771169
13.300000	12.531000	5.000000E-6	8.837256E-5	17.674512
13.333000	12.728000	5.000000E-6	8.800724E-5	17.601449
13.384000	12.766000	5.000000E-6	8.780355E-5	17.560709
13.410000	12.534000	5.000000E-6	8.731741E-5	17.463483
13.439000	12.305000	5.000000E-6	8.723170E-5	17.446340
13.444000	12.270000	5.000000E-6	8.633530E-5	17.267059
13.456000	12.107000	5.000000E-6	8.628895E-5	17.257790
13.453000	12.278000	5.000000E-6	8.630720E-5	17.261439
13.470000	12.539000	5.000000E-6	8.552460E-5	17.104921
13.502000	12.907000	5.000000E-6	8.537849E-5	17.075699
13.553000	12.700000	5.000000E-6	8.468163E-5	16.936327
13.583000	12.600000	5.000000E-6	8.441046E-5	16.882093
13.600000	12.429000	5.000000E-6	8.438800E-5	16.877600
13.604000	12.248000	5.000000E-6	8.382741E-5	16.765482
13.596000	12.224000	5.000000E-6	8.354920E-5	16.709839
13.607000	12.588000	5.000000E-6	8.322889E-5	16.645778
13.636000	13.031000	5.000000E-6	8.259946E-5	16.519892
13.684000	13.023000	5.000000E-6	8.237608E-5	16.475216
13.712000	12.761000	5.000000E-6	8.249409E-5	16.498818
13.731000	12.578000	5.000000E-6	8.202060E-5	16.404121
13.739000	12.554000	5.000000E-6	8.146142E-5	16.292285
13.750000	12.444000	5.000000E-6	8.125912E-5	16.251823
13.743000	12.631000	5.000000E-6	8.103149E-5	16.206298
13.768000	13.144000	5.000000E-6	8.061281E-5	16.122561
13.811000	13.168000	5.000000E-6	8.061707E-5	16.123413
13.836000	12.928000	5.000000E-6	8.018432E-5	16.036864
13.858000	12.721000	5.000000E-6	7.998199E-5	15.996398
13.867000	12.690000	5.000000E-6	7.981198E-5	15.962397
13.878000	12.533000	5.000000E-6	7.929495E-5	15.858989
13.879000	12.755000	5.000000E-6	7.901254E-5	15.802508
13.903000	12.988000	5.000000E-6	7.860510E-5	15.721020
13.934000	13.165000	5.000000E-6	7.808384E-5	15.616769
13.977000	13.103000	5.000000E-6	7.819065E-5	15.638130
14.007000	12.867000	5.000000E-6	7.761462E-5	15.522923
14.018000	12.861000	5.000000E-6	7.735468E-5	15.470937
14.032000	12.688000	5.000000E-6	7.730128E-5	15.460256
14.031000	12.855000	5.000000E-6	7.650747E-5	15.301494
14.048000	13.104000	5.000000E-6	7.634030E-5	15.268061
14.077000	13.461000	5.000000E-6	7.617452E-5	15.234905
14.121000	13.267000	5.000000E-6	7.585278E-5	15.170557
14.146000	13.019000	5.000000E-6	7.568563E-5	15.137125
14.161000	12.900000	5.000000E-6	7.538632E-5	15.077265
14.171000	12.873000	5.000000E-6	7.488336E-5	14.976673
14.172000	12.977000	5.000000E-6	7.459111E-5	14.918223
14.186000	13.161000	5.000000E-6	7.462483E-5	14.924966
14.215000	13.591000	5.000000E-6	7.407266E-5	14.814532
14.259000	13.443000	5.000000E-6	7.381417E-5	14.762834
14.284000	13.344000	5.000000E-6	7.355424E-5	14.710848
14.300000	13.170000	5.000000E-6	7.322549E-5	14.645097
14.311000	13.052000	5.000000E-6	7.302035E-5	14.604071
14.315000	13.005000	5.000000E-6	7.277309E-5	14.554619
14.328000	13.243000	5.000000E-6	7.244714E-5	14.489428
14.351000	13.718000	5.000000E-6	7.184859E-5	14.369718
14.390000	13.735000	5.000000E-6	7.186125E-5	14.372250
14.416000	13.510000	5.000000E-6	7.146224E-5	14.292448
14.442000	13.314000	5.000000E-6	7.126976E-5	14.253952
14.454000	13.312000	5.000000E-6	7.107588E-5	14.215176
14.470000	13.180000	5.000000E-6	7.091291E-5	14.182582
14.476000	13.409000	5.000000E-6	7.062772E-5	14.125544
14.494000	13.854000	5.000000E-6	6.981702E-5	13.963404
14.531000	13.871000	5.000000E-6	6.968776E-5	13.937551
14.560000	13.652000	5.000000E-6	6.944187E-5	13.888374
14.585000	13.479000	5.000000E-6	6.931406E-5	13.862812
14.597000	13.458000	5.000000E-6	6.900074E-5	13.800148
14.612000	13.319000	5.000000E-6	6.885882E-5	13.771763
14.615000	13.565000	5.000000E-6	6.826876E-5	13.653753
14.634000	13.828000	5.000000E-6	6.835166E-5	13.670333
14.651000	13.992000	5.000000E-6	6.830951E-5	13.661901
14.686000	13.928000	5.000000E-6	6.771801E-5	13.543603
14.717000	13.847000	5.000000E-6	6.758453E-5	13.516906
14.737000	13.649000	5.000000E-6	6.722907E-5	13.445813
14.747000	13.513000	5.000000E-6	6.716727E-5	13.433454
14.751000	13.493000	5.000000E-6	6.701132E-5	13.402263
14.765000	13.642000	5.000000E-6	6.655048E-5	13.310096
14.786000	14.131000	5.000000E-6	6.619923E-5	13.239846
14.826000	14.192000	5.000000E-6	6.641841E-5	13.283681
14.854000	13.996000	5.000000E-6	6.568501E-5	13.137002
14.877000	13.809000	5.000000E-6	6.565271E-5	13.130541
14.891000	13.789000	5.000000E-6	6.510195E-5	13.020390
14.908000	13.673000	5.000000E-6	6.529863E-5	13.059727
14.915000	13.773000	5.000000E-6	6.469869E-5	12.939739
14.931000	13.986000	5.000000E-6	6.457368E-5	12.914735
14.955000	14.331000	5.000000E-6	6.406227E-5	12.812453
14.990000	14.165000	5.000000E-6	6.402292E-5	12.804584
15.018000	13.946000	5.000000E-6	6.367028E-5	12.734057
15.036000	13.943000	5.000000E-6	6.339631E-5	12.679262
15.048000	13.834000	5.000000E-6	6.333873E-5	12.667746
15.051000	13.893000	5.000000E-6	6.319682E-5	12.639364
15.064000	14.074000	5.000000E-6	6.284276E-5	12.568552
15.091000	14.465000	5.000000E-6	6.249011E-5	12.498022
15.132000	14.346000	5.000000E-6	6.226671E-5	12.453342
15.161000	14.269000	5.000000E-6	6.194779E-5	12.389558
15.182000	14.119000	5.000000E-6	6.181293E-5	12.362585
15.195000	13.986000	5.000000E-6	6.154461E-5	12.308921
15.201000	13.979000	5.000000E-6	6.148840E-5	12.297681
15.216000	14.516000	5.000000E-6	6.111609E-5	12.223217
15.235000	14.616000	5.000000E-6	6.081121E-5	12.162241
15.273000	14.485000	5.000000E-6	6.044450E-5	12.088901
15.299000	14.423000	5.000000E-6	6.049930E-5	12.099860
15.317000	14.246000	5.000000E-6	6.024363E-5	12.048725
15.329000	14.138000	5.000000E-6	5.990642E-5	11.981284
15.337000	14.134000	5.000000E-6	5.976733E-5	11.953466
15.354000	14.347000	5.000000E-6	5.954956E-5	11.909911
15.375000	14.765000	5.000000E-6	5.933883E-5	11.867765
15.411000	14.776000	5.000000E-6	5.901849E-5	11.803699
15.437000	14.571000	5.000000E-6	5.884148E-5	11.768295
15.461000	14.430000	5.000000E-6	5.864899E-5	11.729798
15.475000	14.406000	5.000000E-6	5.843964E-5	11.687928
15.488000	14.281000	5.000000E-6	5.814180E-5	11.628359
15.493000	14.552000	5.000000E-6	5.816709E-5	11.633418
15.515000	14.785000	5.000000E-6	5.795918E-5	11.591836
15.541000	14.906000	5.000000E-6	5.761496E-5	11.522991
15.575000	14.699000	5.000000E-6	5.740000E-5	11.479999
15.595000	14.634000	5.000000E-6	5.720190E-5	11.440380
15.612000	14.544000	5.000000E-6	5.681411E-5	11.362823
15.621000	14.438000	5.000000E-6	5.681975E-5	11.363950
15.630000	14.491000	5.000000E-6	5.653035E-5	11.306069
15.648000	14.969000	5.000000E-6	5.639685E-5	11.279371
15.678000	15.025000	5.000000E-6	5.639969E-5	11.279937
15.708000	14.957000	5.000000E-6	5.591358E-5	11.182716
15.732000	14.776000	5.000000E-6	5.573513E-5	11.147027
15.750000	14.676000	5.000000E-6	5.537826E-5	11.075652
15.764000	14.648000	5.000000E-6	5.532629E-5	11.065258
15.777000	14.988000	5.000000E-6	5.517035E-5	11.034071
15.788000	15.156000	5.000000E-6	5.484720E-5	10.969440
15.816000	15.220000	5.000000E-6	5.470530E-5	10.941061
15.840000	15.058000	5.000000E-6	5.455918E-5	10.911837
15.866000	14.897000	5.000000E-6	5.417000E-5	10.834001
15.884000	14.883000	5.000000E-6	5.434842E-5	10.869685
15.902000	14.781000	5.000000E-6	5.397049E-5	10.794097
15.913000	14.958000	5.000000E-6	5.379069E-5	10.758139
15.931000	15.193000	5.000000E-6	5.328347E-5	10.656693
15.953000	15.355000	5.000000E-6	5.336495E-5	10.672991
15.985000	15.276000	5.000000E-6	5.313457E-5	10.626913
16.006000	15.200000	5.000000E-6	5.305305E-5	10.610611
16.030000	15.067000	5.000000E-6	5.277068E-5	10.554137
16.051000	14.988000	5.000000E-6	5.259226E-5	10.518452
16.066000	14.946000	5.000000E-6	5.232671E-5	10.465342
16.080000	15.218000	5.000000E-6	5.199093E-5	10.398186
16.103000	15.520000	5.000000E-6	5.175770E-5	10.351540
16.136000	15.344000	5.000000E-6	5.202606E-5	10.405211
16.159000	15.284000	5.000000E-6	5.177456E-5	10.354912
16.179000	15.186000	5.000000E-6	5.146689E-5	10.293378
16.193000	15.075000	5.000000E-6	5.108332E-5	10.216663
16.202000	15.094000	5.000000E-6	5.086697E-5	10.173393
16.217000	15.539000	5.000000E-6	5.086836E-5	10.173672
16.241000	15.604000	5.000000E-6	5.080655E-5	10.161310
16.270000	15.533000	5.000000E-6	5.057895E-5	10.115789
16.293000	15.360000	5.000000E-6	5.049606E-5	10.099213
16.315000	15.283000	5.000000E-6	5.000573E-5	10.001147
16.328000	15.238000	5.000000E-6	5.007883E-5	10.015766
16.343000	15.352000	5.000000E-6	4.996640E-5	9.993280
16.359000	15.762000	5.000000E-6	4.965733E-5	9.931465
16.392000	15.783000	5.000000E-6	4.960538E-5	9.921075
16.415000	15.597000	5.000000E-6	4.927943E-5	9.855886
16.436000	15.442000	5.000000E-6	4.942695E-5	9.885390
16.448000	15.446000	5.000000E-6	4.921901E-5	9.843802
16.467000	15.440000	5.000000E-6	4.919934E-5	9.839867
16.478000	15.636000	5.000000E-6	4.879751E-5	9.759502
16.500000	15.850000	5.000000E-6	4.889445E-5	9.778889
16.525000	15.860000	5.000000E-6	4.836899E-5	9.673797
16.555000	15.681000	5.000000E-6	4.832824E-5	9.665648
16.578000	15.631000	5.000000E-6	4.830296E-5	9.660593
16.597000	15.470000	5.000000E-6	4.845190E-5	9.690379
16.608000	15.517000	5.000000E-6	4.793904E-5	9.587808
16.619000	15.690000	5.000000E-6	4.808094E-5	9.616188
16.640000	16.049000	5.000000E-6	4.800509E-5	9.601019
16.672000	15.928000	5.000000E-6	4.792361E-5	9.584721
16.697000	15.741000	5.000000E-6	4.788145E-5	9.576289
16.715000	15.738000	5.000000E-6	4.755127E-5	9.510255
16.731000	15.649000	5.000000E-6	4.820599E-5	9.641199
16.742000	15.808000	5.000000E-6	4.775500E-5	9.551000
16.760000	16.037000	5.000000E-6	4.830015E-5	9.660030
16.782000	16.159000	5.000000E-6	4.839002E-5	9.678005
16.813000	15.958000	5.000000E-6	4.893939E-5	9.787878
16.837000	15.922000	5.000000E-6	4.938476E-5	9.876953
16.854000	15.855000	5.000000E-6	5.077148E-5	10.154296
16.869000	15.773000	5.000000E-6	4.792921E-5	9.585841
16.883000	15.898000	5.000000E-6	4.487903E-5	8.975807
16.899000	16.293000	5.000000E-6	4.448141E-5	8.896281
16.929000	16.204000	5.000000E-6	4.470197E-5	8.940395
16.957000	16.153000	5.000000E-6	4.460928E-5	8.921855
16.978000	16.029000	5.000000E-6	4.430298E-5	8.860596
16.995000	15.942000	5.000000E-6	4.432688E-5	8.865375
17.004000	15.914000	5.000000E-6	4.432968E-5	8.865935
17.019000	16.232000	5.000000E-6	4.408381E-5	8.816762
17.038000	16.427000	5.000000E-6	4.452216E-5	8.904432
17.065000	16.365000	5.000000E-6	4.440134E-5	8.880267
17.085000	16.122000	5.000000E-6	4.453621E-5	8.907241
17.105000	16.122000	5.000000E-6	4.437604E-5	8.875208
17.119000	16.086000	5.000000E-6	4.460224E-5	8.920447
17.135000	16.133000	5.000000E-6	4.410488E-5	8.820977
17.150000	16.531000	5.000000E-6	4.431984E-5	8.863969
17.179000	16.568000	5.000000E-6	4.422149E-5	8.844299
17.200000	16.298000	5.000000E-6	4.449267E-5	8.898534
17.224000	16.290000	5.000000E-6	4.440836E-5	8.881672
17.244000	16.278000	5.000000E-6	4.436059E-5	8.872119
17.263000	16.249000	5.000000E-6	4.431284E-5	8.862568
17.280000	16.274000	5.000000E-6	4.437464E-5	8.874928
17.294000	16.455000	5.000000E-6	4.433530E-5	8.867060
17.313000	16.623000	5.000000E-6	4.450810E-5	8.901620
17.341000	16.568000	5.000000E-6	4.449688E-5	8.899375
17.365000	16.511000	5.000000E-6	4.422572E-5	8.845143
17.387000	16.440000	5.000000E-6	4.444209E-5	8.888417
17.408000	16.358000	5.000000E-6	4.448564E-5	8.897128
17.421000	16.421000	5.000000E-6	4.462050E-5	8.924101
17.441000	16.850000	5.000000E-6	4.471743E-5	8.943486
17.467000	16.813000	5.000000E-6	4.405150E-5	8.810299
17.496000	16.637000	5.000000E-6	4.449826E-5	8.899651
17.518000	16.619000	5.000000E-6	4.428052E-5	8.856104
17.536000	16.553000	5.000000E-6	4.441536E-5	8.883072
17.552000	16.567000	5.000000E-6	4.466968E-5	8.933935
17.566000	16.749000	5.000000E-6	4.457696E-5	8.915392
17.587000	17.013000	5.000000E-6	4.433390E-5	8.866780
17.615000	16.856000	5.000000E-6	4.430155E-5	8.860311
17.639000	16.819000	5.000000E-6	4.422993E-5	8.845986
17.659000	16.742000	5.000000E-6	4.409924E-5	8.819848
17.676000	16.646000	5.000000E-6	4.460505E-5	8.921009
17.688000	16.704000	5.000000E-6	4.464859E-5	8.929717
17.706000	17.082000	5.000000E-6	4.440131E-5	8.880263
17.727000	17.095000	5.000000E-6	4.434795E-5	8.869590
17.756000	17.037000	5.000000E-6	4.440414E-5	8.880828
17.779000	16.895000	5.000000E-6	4.433528E-5	8.867056
17.798000	16.850000	5.000000E-6	4.441679E-5	8.883359
17.813000	16.826000	5.000000E-6	4.410767E-5	8.821534
17.830000	17.022000	5.000000E-6	4.465282E-5	8.930563
17.847000	17.284000	5.000000E-6	4.443785E-5	8.887571
17.871000	17.249000	5.000000E-6	4.430578E-5	8.861157
17.892000	17.089000	5.000000E-6	4.440274E-5	8.880549
17.913000	17.011000	5.000000E-6	4.444208E-5	8.888416
17.930000	16.987000	5.000000E-6	4.412314E-5	8.824628
17.949000	16.980000	5.000000E-6	4.439150E-5	8.878299
17.966000	17.358000	5.000000E-6	4.428892E-5	8.857785
17.993000	17.424000	5.000000E-6	4.410206E-5	8.820412
18.015000	17.291000	5.000000E-6	4.430015E-5	8.860031
18.040000	17.164000	5.000000E-6	4.434796E-5	8.869592
18.058000	17.149000	5.000000E-6	4.432965E-5	8.865930
18.073000	17.068000	5.000000E-6	4.411469E-5	8.822937
18.085000	17.261000	5.000000E-6	4.448420E-5	8.896841
18.101000	17.456000	5.000000E-6	4.434654E-5	8.869307
18.123000	17.374000	5.000000E-6	4.436901E-5	8.873801
18.150000	17.333000	5.000000E-6	4.442943E-5	8.885885
18.174000	17.293000	5.000000E-6	4.463735E-5	8.927470
18.193000	17.233000	5.000000E-6	4.434791E-5	8.869581
18.207000	17.220000	5.000000E-6	4.435070E-5	8.870141
18.220000	17.379000	5.000000E-6	4.447859E-5	8.895719
18.241000	17.576000	5.000000E-6	4.438304E-5	8.876609
18.270000	17.531000	5.000000E-6	4.454038E-5	8.908077
18.295000	17.470000	5.000000E-6	4.440132E-5	8.880264
18.316000	17.394000	5.000000E-6	4.414278E-5	8.828556
18.332000	17.304000	5.000000E-6	4.426082E-5	8.852165
18.345000	17.354000	5.000000E-6	4.423412E-5	8.846825
18.361000	17.706000	5.000000E-6	4.429734E-5	8.859467
18.383000	17.713000	5.000000E-6	4.428330E-5	8.856660
18.409000	17.657000	5.000000E-6	4.442942E-5	8.885884
18.432000	17.537000	5.000000E-6	4.443222E-5	8.886444
18.453000	17.467000	5.000000E-6	4.439989E-5	8.879977
18.469000	17.458000	5.000000E-6	4.422146E-5	8.844293
18.486000	17.835000	5.000000E-6	4.419477E-5	8.838955
18.505000	17.881000	5.000000E-6	4.441397E-5	8.882794
18.530000	17.753000	5.000000E-6	4.428611E-5	8.857222
18.555000	17.716000	5.000000E-6	4.396436E-5	8.792872
18.575000	17.651000	5.000000E-6	4.453056E-5	8.906111
18.596000	17.620000	5.000000E-6	4.440272E-5	8.880544
18.614000	17.607000	5.000000E-6	4.430156E-5	8.860312
18.630000	17.749000	5.000000E-6	4.432403E-5	8.864806
18.646000	18.019000	5.000000E-6	4.440974E-5	8.881949
18.671000	18.018000	5.000000E-6	4.464297E-5	8.928594
18.693000	17.875000	5.000000E-6	4.451231E-5	8.902463
18.715000	17.784000	5.000000E-6	4.431278E-5	8.862557
18.734000	17.786000	5.000000E-6	4.409501E-5	8.819003
18.755000	17.847000	5.000000E-6	4.439569E-5	8.879138
18.769000	18.025000	5.000000E-6	4.432966E-5	8.865931
18.790000	18.148000	5.000000E-6	4.417090E-5	8.834179
18.812000	17.990000	5.000000E-6	4.428751E-5	8.857501
18.838000	17.966000	5.000000E-6	4.446453E-5	8.892906
18.859000	17.942000	5.000000E-6	4.436901E-5	8.873801
18.876000	17.881000	5.000000E-6	4.433246E-5	8.866492
18.890000	17.936000	5.000000E-6	4.436195E-5	8.872391
18.906000	18.093000	5.000000E-6	4.454743E-5	8.909486
18.926000	18.204000	5.000000E-6	4.428751E-5	8.857501
18.952000	18.169000	5.000000E-6	4.423551E-5	8.847102
18.976000	18.052000	5.000000E-6	4.422147E-5	8.844294
18.995000	18.062000	5.000000E-6	4.411470E-5	8.822939
19.013000	17.989000	5.000000E-6	4.447018E-5	8.894036
19.027000	18.175000	5.000000E-6	4.438444E-5	8.876888
19.044000	18.340000	5.000000E-6	4.419056E-5	8.838112
19.062000	18.368000	5.000000E-6	4.440973E-5	8.881945
19.087000	18.221000	5.000000E-6	4.456427E-5	8.912854
19.109000	18.205000	5.000000E-6	4.422147E-5	8.844293
19.128000	18.162000	5.000000E-6	4.419896E-5	8.839792
19.147000	18.128000	5.000000E-6	4.453477E-5	8.906954
19.162000	18.253000	5.000000E-6	4.450526E-5	8.901052
19.182000	18.536000	5.000000E-6	4.445188E-5	8.890376
19.209000	18.449000	5.000000E-6	4.425656E-5	8.851313
19.232000	18.414000	5.000000E-6	4.414557E-5	8.829114
19.252000	18.329000	5.000000E-6	4.399526E-5	8.799052
19.273000	18.282000	5.000000E-6	4.432685E-5	8.865370
19.289000	18.270000	5.000000E-6	4.417931E-5	8.835862
19.308000	18.472000	5.000000E-6	4.434230E-5	8.868460
19.326000	18.666000	5.000000E-6	4.422567E-5	8.845134
19.350000	18.645000	5.000000E-6	4.401913E-5	8.803825
19.369000	18.515000	5.000000E-6	4.439568E-5	8.879136
19.388000	18.455000	5.000000E-6	4.443642E-5	8.887283
19.407000	18.447000	5.000000E-6	4.446731E-5	8.893462
19.425000	18.414000	5.000000E-6	4.415679E-5	8.831358
19.445000	18.712000	5.000000E-6	4.422426E-5	8.844852
19.464000	18.769000	5.000000E-6	4.423691E-5	8.847383
19.489000	18.740000	5.000000E-6	4.441112E-5	8.882223
19.510000	18.627000	5.000000E-6	4.395870E-5	8.791739
19.531000	18.570000	5.000000E-6	4.413574E-5	8.827148
19.552000	18.571000	5.000000E-6	4.401491E-5	8.802983
19.570000	18.620000	5.000000E-6	4.448139E-5	8.896278
19.588000	18.911000	5.000000E-6	4.432120E-5	8.864240
19.611000	18.950000	5.000000E-6	4.435635E-5	8.871271
19.632000	18.850000	5.000000E-6	4.438443E-5	8.876886
19.655000	18.742000	5.000000E-6	4.431980E-5	8.863960
19.678000	18.765000	5.000000E-6	4.441957E-5	8.883914
19.699000	18.706000	5.000000E-6	4.442658E-5	8.885317
19.716000	18.834000	5.000000E-6	4.427625E-5	8.855251
19.734000	18.980000	5.000000E-6	4.441957E-5	8.883914
19.753000	19.087000	5.000000E-6	4.435354E-5	8.870708
19.778000	18.951000	5.000000E-6	4.438587E-5	8.877174
19.800000	18.939000	5.000000E-6	4.412172E-5	8.824344
19.820000	18.898000	5.000000E-6	4.438163E-5	8.876326
19.839000	18.826000	5.000000E-6	4.431422E-5	8.862845
19.858000	18.872000	5.000000E-6	4.420463E-5	8.840927
19.875000	18.996000	5.000000E-6	4.443082E-5	8.886163
19.892000	19.243000	5.000000E-6	4.421025E-5	8.842051
19.916000	19.247000	5.000000E-6	4.438165E-5	8.876331
